File: Raw/20230422_MCDI_RUN1_12V_10min_discharge.txt
Apr. 22, 2023   20:49:41
Amperometric i-t Curve
File: c:\users\user\desktop\20230422\20230422_mcdi_run1_12v_10min_discharge.txt
Data Source:  Experiment
Instrument Model:  CHI6273E
4-electrode
Header:
Note:

Init E (V) = 0
Sample Interval (s) = 1
Run Time (sec) = 600
Quiet Time (sec) = 0
Sensitivity (A/V) = 0.1

Time/sec, Current/A

1.000e+0, 2.158e-1
3.000e+0, 2.136e-1
5.000e+0, 2.921e-1
7.000e+0, 4.020e-1
9.000e+0, 3.803e-1
1.100e+1, 3.628e-1
1.300e+1, 3.436e-1
1.500e+1, 3.287e-1
1.700e+1, 3.151e-1
1.900e+1, 3.017e-1
2.100e+1, 2.895e-1
2.300e+1, 2.772e-1
2.500e+1, 2.662e-1
2.700e+1, 2.550e-1
2.900e+1, 2.450e-1
3.100e+1, 2.348e-1
3.300e+1, 2.256e-1
3.500e+1, 2.164e-1
3.700e+1, 2.079e-1
3.900e+1, 1.997e-1
4.100e+1, 1.917e-1
4.300e+1, 1.844e-1
4.500e+1, 1.771e-1
4.700e+1, 1.704e-1
4.900e+1, 1.636e-1
5.100e+1, 1.576e-1
5.300e+1, 1.514e-1
5.500e+1, 1.458e-1
5.700e+1, 1.401e-1
5.900e+1, 1.349e-1
6.100e+1, 1.297e-1
6.300e+1, 1.248e-1
6.500e+1, 1.201e-1
6.700e+1, 1.156e-1
6.900e+1, 1.113e-1
7.100e+1, 1.071e-1
7.300e+1, 1.031e-1
7.500e+1, 9.925e-2
7.700e+1, 9.564e-2
7.900e+1, 9.202e-2
8.100e+1, 8.870e-2
8.300e+1, 8.535e-2
8.500e+1, 8.225e-2
8.700e+1, 7.916e-2
8.900e+1, 7.627e-2
9.100e+1, 7.344e-2
9.300e+1, 7.075e-2
9.500e+1, 6.814e-2
9.700e+1, 6.566e-2
9.900e+1, 6.325e-2
1.010e+2, 6.094e-2
1.030e+2, 5.874e-2
1.050e+2, 5.658e-2
1.070e+2, 5.455e-2
1.090e+2, 5.252e-2
1.110e+2, 5.064e-2
1.130e+2, 4.876e-2
1.150e+2, 4.701e-2
1.170e+2, 4.526e-2
1.190e+2, 4.365e-2
1.210e+2, 4.203e-2
1.230e+2, 4.053e-2
1.250e+2, 3.904e-2
1.270e+2, 3.764e-2
1.290e+2, 3.628e-2
1.310e+2, 3.495e-2
1.330e+2, 3.371e-2
1.350e+2, 3.246e-2
1.370e+2, 3.131e-2
1.390e+2, 3.014e-2
1.410e+2, 2.909e-2
1.430e+2, 2.800e-2
1.450e+2, 2.702e-2
1.470e+2, 2.602e-2
1.490e+2, 2.511e-2
1.510e+2, 2.419e-2
1.530e+2, 2.332e-2
1.550e+2, 2.249e-2
1.570e+2, 2.167e-2
1.590e+2, 2.091e-2
1.610e+2, 2.014e-2
1.630e+2, 1.943e-2
1.650e+2, 1.872e-2
1.670e+2, 1.807e-2
1.690e+2, 1.740e-2
1.710e+2, 1.680e-2
1.730e+2, 1.618e-2
1.750e+2, 1.562e-2
1.770e+2, 1.506e-2
1.790e+2, 1.452e-2
1.810e+2, 1.402e-2
1.830e+2, 1.352e-2
1.850e+2, 1.306e-2
1.870e+2, 1.258e-2
1.890e+2, 1.216e-2
1.910e+2, 1.173e-2
1.930e+2, 1.134e-2
1.950e+2, 1.092e-2
1.970e+2, 1.056e-2
1.990e+2, 1.019e-2
2.010e+2, 9.853e-3
2.030e+2, 9.518e-3
2.050e+2, 9.195e-3
2.070e+2, 8.893e-3
2.090e+2, 8.588e-3
2.110e+2, 8.308e-3
2.130e+2, 8.015e-3
2.150e+2, 7.762e-3
2.170e+2, 7.497e-3
2.190e+2, 7.266e-3
2.210e+2, 7.020e-3
2.230e+2, 6.806e-3
2.250e+2, 6.584e-3
2.270e+2, 6.382e-3
2.290e+2, 6.187e-3
2.310e+2, 5.994e-3
2.330e+2, 5.815e-3
2.350e+2, 5.630e-3
2.370e+2, 5.469e-3
2.390e+2, 5.298e-3
2.410e+2, 5.149e-3
2.430e+2, 4.990e-3
2.450e+2, 4.856e-3
2.470e+2, 4.710e-3
2.490e+2, 4.585e-3
2.510e+2, 4.454e-3
2.530e+2, 4.334e-3
2.550e+2, 4.215e-3
2.570e+2, 4.102e-3
2.590e+2, 3.999e-3
2.610e+2, 3.889e-3
2.630e+2, 3.795e-3
2.650e+2, 3.692e-3
2.670e+2, 3.605e-3
2.690e+2, 3.510e-3
2.710e+2, 3.430e-3
2.730e+2, 3.341e-3
2.750e+2, 3.265e-3
2.770e+2, 3.189e-3
2.790e+2, 3.118e-3
2.810e+2, 3.050e-3
2.830e+2, 2.981e-3
2.850e+2, 2.920e-3
2.870e+2, 2.855e-3
2.890e+2, 2.797e-3
2.910e+2, 2.733e-3
2.930e+2, 2.682e-3
2.950e+2, 2.624e-3
2.970e+2, 2.576e-3
2.990e+2, 2.522e-3
3.010e+2, 2.477e-3
3.030e+2, 2.431e-3
3.050e+2, 2.387e-3
3.070e+2, 2.346e-3
3.090e+2, 2.302e-3
3.110e+2, 2.265e-3
3.130e+2, 2.224e-3
3.150e+2, 2.189e-3
3.170e+2, 2.149e-3
3.190e+2, 2.117e-3
3.210e+2, 2.081e-3
3.230e+2, 2.052e-3
3.250e+2, 2.018e-3
3.270e+2, 1.989e-3
3.290e+2, 1.960e-3
3.310e+2, 1.930e-3
3.330e+2, 1.905e-3
3.350e+2, 1.875e-3
3.370e+2, 1.853e-3
3.390e+2, 1.824e-3
3.410e+2, 1.803e-3
3.430e+2, 1.777e-3
3.450e+2, 1.757e-3
3.470e+2, 1.732e-3
3.490e+2, 1.712e-3
3.510e+2, 1.691e-3
3.530e+2, 1.671e-3
3.550e+2, 1.652e-3
3.570e+2, 1.631e-3
3.590e+2, 1.616e-3
3.610e+2, 1.594e-3
3.630e+2, 1.579e-3
3.650e+2, 1.558e-3
3.670e+2, 1.544e-3
3.690e+2, 1.525e-3
3.710e+2, 1.513e-3
3.730e+2, 1.495e-3
3.750e+2, 1.480e-3
3.770e+2, 1.465e-3
3.790e+2, 1.449e-3
3.810e+2, 1.437e-3
3.830e+2, 1.421e-3
3.850e+2, 1.409e-3
3.870e+2, 1.393e-3
3.890e+2, 1.382e-3
3.910e+2, 1.367e-3
3.930e+2, 1.356e-3
3.950e+2, 1.342e-3
3.970e+2, 1.332e-3
3.990e+2, 1.318e-3
4.010e+2, 1.307e-3
4.030e+2, 1.296e-3
4.050e+2, 1.283e-3
4.070e+2, 1.273e-3
4.090e+2, 1.260e-3
4.110e+2, 1.251e-3
4.130e+2, 1.239e-3
4.150e+2, 1.231e-3
4.170e+2, 1.218e-3
4.190e+2, 1.211e-3
4.210e+2, 1.199e-3
4.230e+2, 1.191e-3
4.250e+2, 1.182e-3
4.270e+2, 1.173e-3
4.290e+2, 1.164e-3
4.310e+2, 1.154e-3
4.330e+2, 1.148e-3
4.350e+2, 1.137e-3
4.370e+2, 1.131e-3
4.390e+2, 1.120e-3
4.410e+2, 1.114e-3
4.430e+2, 1.104e-3
4.450e+2, 1.100e-3
4.470e+2, 1.090e-3
4.490e+2, 1.083e-3
4.510e+2, 1.075e-3
4.530e+2, 1.068e-3
4.550e+2, 1.060e-3
4.570e+2, 1.053e-3
4.590e+2, 1.047e-3
4.610e+2, 1.038e-3
4.630e+2, 1.034e-3
4.650e+2, 1.024e-3
4.670e+2, 1.019e-3
4.690e+2, 1.009e-3
4.710e+2, 1.004e-3
4.730e+2, 9.961e-4
4.750e+2, 9.909e-4
4.770e+2, 9.843e-4
4.790e+2, 9.775e-4
4.810e+2, 9.718e-4
4.830e+2, 9.650e-4
4.850e+2, 9.597e-4
4.870e+2, 9.503e-4
4.890e+2, 9.472e-4
4.910e+2, 9.394e-4
4.930e+2, 9.343e-4
4.950e+2, 9.257e-4
4.970e+2, 9.204e-4
4.990e+2, 9.136e-4
5.010e+2, 9.086e-4
5.030e+2, 9.028e-4
5.050e+2, 8.956e-4
5.070e+2, 8.904e-4
5.090e+2, 8.837e-4
5.110e+2, 8.793e-4
5.130e+2, 8.721e-4
5.150e+2, 8.682e-4
5.170e+2, 8.608e-4
5.190e+2, 8.570e-4
5.210e+2, 8.493e-4
5.230e+2, 8.461e-4
5.250e+2, 8.399e-4
5.270e+2, 8.354e-4
5.290e+2, 8.299e-4
5.310e+2, 8.245e-4
5.330e+2, 8.192e-4
5.350e+2, 8.140e-4
5.370e+2, 8.097e-4
5.390e+2, 8.030e-4
5.410e+2, 8.012e-4
5.430e+2, 7.941e-4
5.450e+2, 7.908e-4
5.470e+2, 7.852e-4
5.490e+2, 7.814e-4
5.510e+2, 7.759e-4
5.530e+2, 7.731e-4
5.550e+2, 7.678e-4
5.570e+2, 7.636e-4
5.590e+2, 7.601e-4
5.610e+2, 7.544e-4
5.630e+2, 7.520e-4
5.650e+2, 7.455e-4
5.670e+2, 7.441e-4
5.690e+2, 7.379e-4
5.710e+2, 7.354e-4
5.730e+2, 7.306e-4
5.750e+2, 7.264e-4
5.770e+2, 7.220e-4
5.790e+2, 7.184e-4
5.810e+2, 7.152e-4
5.830e+2, 7.108e-4
5.850e+2, 7.073e-4
5.870e+2, 7.026e-4
5.890e+2, 6.993e-4
5.910e+2, 6.944e-4
5.930e+2, 6.919e-4
5.950e+2, 6.878e-4
5.970e+2, 6.836e-4
5.990e+2, 6.798e-4
6.000e+2, 6.785e-4