File: Raw/20230422_MCDI_RUN1_12V_10min_charge.txt
Apr. 22, 2023   20:39:37
Amperometric i-t Curve
File: c:\users\user\desktop\20230422\20230422_mcdi_run1_12v_10min_charge.txt
Data Source:  Experiment
Instrument Model:  CHI6273E
4-electrode
Header:
Note:

Init E (V) = 1.2
Sample Interval (s) = 1
Run Time (sec) = 600
Quiet Time (sec) = 0
Sensitivity (A/V) = 0.1

Time/sec, Current/A

1.000e+0, -3.270e-1
3.000e+0, -2.593e-1
5.000e+0, -1.989e-1
7.000e+0, -1.851e-1
9.000e+0, -1.569e-1
1.100e+1, -1.491e-1
1.300e+1, -1.358e-1
1.500e+1, -1.275e-1
1.700e+1, -1.228e-1
1.900e+1, -1.125e-1
2.100e+1, -1.137e-1
2.300e+1, -1.020e-1
2.500e+1, -1.084e-1
2.700e+1, -9.697e-2
2.900e+1, -1.053e-1
3.100e+1, -9.781e-2
3.300e+1, -1.031e-1
3.500e+1, -1.003e-1
3.700e+1, -1.011e-1
3.900e+1, -1.015e-1
4.100e+1, -9.857e-2
4.300e+1, -1.010e-1
4.500e+1, -9.528e-2
4.700e+1, -9.943e-2
4.900e+1, -9.228e-2
5.100e+1, -9.794e-2
5.300e+1, -9.121e-2
5.500e+1, -9.640e-2
5.700e+1, -9.260e-2
5.900e+1, -9.481e-2
6.100e+1, -9.390e-2
6.300e+1, -9.302e-2
6.500e+1, -9.392e-2
6.700e+1, -9.047e-2
6.900e+1, -9.287e-2
7.100e+1, -8.785e-2
7.300e+1, -9.127e-2
7.500e+1, -8.592e-2
7.700e+1, -8.982e-2
7.900e+1, -8.557e-2
8.100e+1, -8.840e-2
8.300e+1, -8.644e-2
8.500e+1, -8.689e-2
8.700e+1, -8.680e-2
8.900e+1, -8.509e-2
9.100e+1, -8.621e-2
9.300e+1, -8.265e-2
9.500e+1, -8.491e-2
9.700e+1, -8.063e-2
9.900e+1, -8.335e-2
1.010e+2, -7.947e-2
1.030e+2, -8.191e-2
1.050e+2, -7.943e-2
1.070e+2, -8.050e-2
1.090e+2, -7.970e-2
1.110e+2, -7.894e-2
1.130e+2, -7.925e-2
1.150e+2, -7.710e-2
1.170e+2, -7.820e-2
1.190e+2, -7.490e-2
1.210e+2, -7.670e-2
1.230e+2, -7.342e-2
1.250e+2, -7.511e-2
1.270e+2, -7.264e-2
1.290e+2, -7.357e-2
1.310e+2, -7.232e-2
1.330e+2, -7.204e-2
1.350e+2, -7.183e-2
1.370e+2, -7.038e-2
1.390e+2, -7.071e-2
1.410e+2, -6.856e-2
1.430e+2, -6.932e-2
1.450e+2, -6.670e-2
1.470e+2, -6.769e-2
1.490e+2, -6.545e-2
1.510e+2, -6.605e-2
1.530e+2, -6.459e-2
1.550e+2, -6.444e-2
1.570e+2, -6.379e-2
1.590e+2, -6.282e-2
1.610e+2, -6.273e-2
1.630e+2, -6.115e-2
1.650e+2, -6.127e-2
1.670e+2, -5.943e-2
1.690e+2, -5.975e-2
1.710e+2, -5.783e-2
1.730e+2, -5.811e-2
1.750e+2, -5.662e-2
1.770e+2, -5.652e-2
1.790e+2, -5.559e-2
1.810e+2, -5.494e-2
1.830e+2, -5.450e-2
1.850e+2, -5.336e-2
1.870e+2, -5.320e-2
1.890e+2, -5.181e-2
1.910e+2, -5.172e-2
1.930e+2, -5.029e-2
1.950e+2, -5.025e-2
1.970e+2, -4.889e-2
1.990e+2, -4.877e-2
2.010e+2, -4.775e-2
2.030e+2, -4.731e-2
2.050e+2, -4.665e-2
2.070e+2, -4.587e-2
2.090e+2, -4.550e-2
2.110e+2, -4.445e-2
2.130e+2, -4.422e-2
2.150e+2, -4.309e-2
2.170e+2, -4.287e-2
2.190e+2, -4.178e-2
2.210e+2, -4.156e-2
2.230e+2, -4.059e-2
2.250e+2, -4.027e-2
2.270e+2, -3.956e-2
2.290e+2, -3.901e-2
2.310e+2, -3.853e-2
2.330e+2, -3.779e-2
2.350e+2, -3.746e-2
2.370e+2, -3.658e-2
2.390e+2, -3.633e-2
2.410e+2, -3.545e-2
2.430e+2, -3.520e-2
2.450e+2, -3.439e-2
2.470e+2, -3.411e-2
2.490e+2, -3.343e-2
2.510e+2, -3.305e-2
2.530e+2, -3.255e-2
2.550e+2, -3.202e-2
2.570e+2, -3.165e-2
2.590e+2, -3.102e-2
2.610e+2, -3.074e-2
2.630e+2, -3.004e-2
2.650e+2, -2.980e-2
2.670e+2, -2.913e-2
2.690e+2, -2.888e-2
2.710e+2, -2.829e-2
2.730e+2, -2.801e-2
2.750e+2, -2.752e-2
2.770e+2, -2.715e-2
2.790e+2, -2.679e-2
2.810e+2, -2.633e-2
2.830e+2, -2.605e-2
2.850e+2, -2.553e-2
2.870e+2, -2.530e-2
2.890e+2, -2.476e-2
2.910e+2, -2.455e-2
2.930e+2, -2.405e-2
2.950e+2, -2.382e-2
2.970e+2, -2.339e-2
2.990e+2, -2.311e-2
3.010e+2, -2.277e-2
3.030e+2, -2.244e-2
3.050e+2, -2.218e-2
3.070e+2, -2.179e-2
3.090e+2, -2.157e-2
3.110e+2, -2.117e-2
3.130e+2, -2.098e-2
3.150e+2, -2.056e-2
3.170e+2, -2.038e-2
3.190e+2, -2.000e-2
3.210e+2, -1.981e-2
3.230e+2, -1.950e-2
3.250e+2, -1.926e-2
3.270e+2, -1.901e-2
3.290e+2, -1.873e-2
3.310e+2, -1.854e-2
3.330e+2, -1.822e-2
3.350e+2, -1.805e-2
3.370e+2, -1.772e-2
3.390e+2, -1.757e-2
3.410e+2, -1.725e-2
3.430e+2, -1.710e-2
3.450e+2, -1.682e-2
3.470e+2, -1.665e-2
3.490e+2, -1.642e-2
3.510e+2, -1.621e-2
3.530e+2, -1.604e-2
3.550e+2, -1.580e-2
3.570e+2, -1.565e-2
3.590e+2, -1.539e-2
3.610e+2, -1.525e-2
3.630e+2, -1.500e-2
3.650e+2, -1.488e-2
3.670e+2, -1.463e-2
3.690e+2, -1.451e-2
3.710e+2, -1.430e-2
3.730e+2, -1.415e-2
3.750e+2, -1.399e-2
3.770e+2, -1.382e-2
3.790e+2, -1.368e-2
3.810e+2, -1.349e-2
3.830e+2, -1.338e-2
3.850e+2, -1.318e-2
3.870e+2, -1.307e-2
3.890e+2, -1.288e-2
3.910e+2, -1.278e-2
3.930e+2, -1.260e-2
3.950e+2, -1.249e-2
3.970e+2, -1.234e-2
3.990e+2, -1.221e-2
4.010e+2, -1.209e-2
4.030e+2, -1.194e-2
4.050e+2, -1.184e-2
4.070e+2, -1.168e-2
4.090e+2, -1.159e-2
4.110e+2, -1.144e-2
4.130e+2, -1.135e-2
4.150e+2, -1.120e-2
4.170e+2, -1.111e-2
4.190e+2, -1.098e-2
4.210e+2, -1.088e-2
4.230e+2, -1.077e-2
4.250e+2, -1.066e-2
4.270e+2, -1.057e-2
4.290e+2, -1.044e-2
4.310e+2, -1.036e-2
4.330e+2, -1.023e-2
4.350e+2, -1.016e-2
4.370e+2, -1.003e-2
4.390e+2, -9.967e-3
4.410e+2, -9.849e-3
4.430e+2, -9.776e-3
4.450e+2, -9.679e-3
4.470e+2, -9.594e-3
4.490e+2, -9.512e-3
4.510e+2, -9.417e-3
4.530e+2, -9.346e-3
4.550e+2, -9.244e-3
4.570e+2, -9.180e-3
4.590e+2, -9.074e-3
4.610e+2, -9.017e-3
4.630e+2, -8.913e-3
4.650e+2, -8.852e-3
4.670e+2, -8.763e-3
4.690e+2, -8.696e-3
4.710e+2, -8.621e-3
4.730e+2, -8.546e-3
4.750e+2, -8.485e-3
4.770e+2, -8.403e-3
4.790e+2, -8.345e-3
4.810e+2, -8.259e-3
4.830e+2, -8.206e-3
4.850e+2, -8.120e-3
4.870e+2, -8.072e-3
4.890e+2, -7.993e-3
4.910e+2, -7.940e-3
4.930e+2, -7.871e-3
4.950e+2, -7.813e-3
4.970e+2, -7.756e-3
4.990e+2, -7.690e-3
5.010e+2, -7.638e-3
5.030e+2, -7.569e-3
5.050e+2, -7.521e-3
5.070e+2, -7.445e-3
5.090e+2, -7.398e-3
5.110e+2, -7.329e-3
5.130e+2, -7.287e-3
5.150e+2, -7.226e-3
5.170e+2, -7.179e-3
5.190e+2, -7.124e-3
5.210e+2, -7.073e-3
5.230e+2, -7.026e-3
5.250e+2, -6.969e-3
5.270e+2, -6.926e-3
5.290e+2, -6.868e-3
5.310e+2, -6.826e-3
5.330e+2, -6.770e-3
5.350e+2, -6.731e-3
5.370e+2, -6.678e-3
5.390e+2, -6.639e-3
5.410e+2, -6.590e-3
5.430e+2, -6.546e-3
5.450e+2, -6.505e-3
5.470e+2, -6.456e-3
5.490e+2, -6.417e-3
5.510e+2, -6.368e-3
5.530e+2, -6.332e-3
5.550e+2, -6.285e-3
5.570e+2, -6.250e-3
5.590e+2, -6.203e-3
5.610e+2, -6.167e-3
5.630e+2, -6.124e-3
5.650e+2, -6.089e-3
5.670e+2, -6.051e-3
5.690e+2, -6.012e-3
5.710e+2, -5.979e-3
5.730e+2, -5.938e-3
5.750e+2, -5.904e-3
5.770e+2, -5.864e-3
5.790e+2, -5.833e-3
5.810e+2, -5.792e-3
5.830e+2, -5.762e-3
5.850e+2, -5.724e-3
5.870e+2, -5.693e-3
5.890e+2, -5.658e-3
5.910e+2, -5.626e-3
5.930e+2, -5.596e-3
5.950e+2, -5.561e-3
5.970e+2, -5.533e-3
5.990e+2, -5.500e-3
6.000e+2, -5.484e-3